ALV-6000/E-WIN Data
Date :	"02.10.2018"
Time :	"12:08:00"
Samplename : 	""
SampMemo(0) : 	""
SampMemo(1) : 	""
SampMemo(2) : 	""
SampMemo(3) : 	""
SampMemo(4) : 	""
SampMemo(5) : 	""
SampMemo(6) : 	""
SampMemo(7) : 	""
SampMemo(8) : 	""
SampMemo(9) : 	""
Temperature [K] :	     298.16000
Viscosity [cp]  :	       0.89000
Refractive Index:	       1.33200
Wavelength [nm] :	     632.80000
Angle [°]       :	      90.00000
Duration [s]    :	        30
Runs            :	         1
Mode            :	"SINGLE AUTO CH0 "
MeanCR0 [kHz]   :	      59.10679
MeanCR1 [kHz]   :	       0.00000

"Correlation"
  1.25000E-004	 -9.85058E-001
  2.50000E-004	 -7.60164E-001
  3.75000E-004	 -2.28923E-001
  5.00000E-004	  2.23778E-001
  6.25000E-004	  4.66679E-001
  7.50000E-004	  5.74720E-001
  8.75000E-004	  6.00773E-001
  1.00000E-003	  6.56862E-001
  1.12500E-003	  6.66287E-001
  1.25000E-003	  6.50732E-001
  1.37500E-003	  6.72494E-001
  1.50000E-003	  6.72110E-001
  1.62500E-003	  6.77398E-001
  1.75000E-003	  6.79620E-001
  1.87500E-003	  6.88432E-001
  2.00000E-003	  6.81468E-001
  2.25000E-003	  6.97560E-001
  2.50000E-003	  6.83231E-001
  2.75000E-003	  6.77560E-001
  3.00000E-003	  6.82578E-001
  3.25000E-003	  6.72540E-001
  3.50000E-003	  6.85413E-001
  3.75000E-003	  6.69168E-001
  4.00000E-003	  6.75617E-001
  4.50000E-003	  6.78050E-001
  5.00000E-003	  6.90636E-001
  5.50000E-003	  6.80158E-001
  6.00000E-003	  6.81882E-001
  6.50000E-003	  6.76825E-001
  7.00000E-003	  6.69468E-001
  7.50000E-003	  6.80827E-001
  8.00000E-003	  6.74932E-001
  9.00000E-003	  6.77325E-001
  1.00000E-002	  6.75622E-001
  1.10000E-002	  6.75497E-001
  1.20000E-002	  6.74434E-001
  1.30000E-002	  6.68083E-001
  1.40000E-002	  6.64970E-001
  1.50000E-002	  6.64702E-001
  1.60000E-002	  6.64264E-001
  1.80000E-002	  6.63564E-001
  2.00000E-002	  6.62128E-001
  2.20000E-002	  6.56586E-001
  2.40000E-002	  6.53051E-001
  2.60000E-002	  6.49383E-001
  2.80000E-002	  6.51222E-001
  3.00000E-002	  6.49024E-001
  3.20000E-002	  6.44496E-001
  3.60000E-002	  6.39278E-001
  4.00000E-002	  6.36213E-001
  4.40000E-002	  6.27951E-001
  4.80000E-002	  6.20990E-001
  5.20000E-002	  6.17235E-001
  5.60000E-002	  6.14397E-001
  6.00000E-002	  6.07383E-001
  6.40000E-002	  6.00046E-001
  7.20000E-002	  5.93746E-001
  8.00000E-002	  5.82985E-001
  8.80000E-002	  5.73602E-001
  9.60000E-002	  5.63435E-001
  1.04000E-001	  5.55983E-001
  1.12000E-001	  5.46853E-001
  1.20000E-001	  5.35522E-001
  1.28000E-001	  5.27238E-001
  1.44000E-001	  5.11542E-001
  1.60000E-001	  4.95428E-001
  1.76000E-001	  4.79343E-001
  1.92000E-001	  4.62929E-001
  2.08000E-001	  4.48294E-001
  2.24000E-001	  4.34378E-001
  2.40000E-001	  4.18152E-001
  2.56000E-001	  4.05393E-001
  2.88000E-001	  3.81450E-001
  3.20000E-001	  3.57715E-001
  3.52000E-001	  3.33580E-001
  3.84000E-001	  3.11957E-001
  4.16000E-001	  2.90812E-001
  4.48000E-001	  2.74296E-001
  4.80000E-001	  2.55829E-001
  5.12000E-001	  2.39559E-001
  5.76000E-001	  2.09966E-001
  6.40000E-001	  1.83155E-001
  7.04000E-001	  1.61378E-001
  7.68000E-001	  1.40287E-001
  8.32000E-001	  1.23800E-001
  8.96000E-001	  1.08481E-001
  9.60000E-001	  9.37845E-002
  1.02400E+000	  8.34220E-002
  1.15200E+000	  6.45823E-002
  1.28000E+000	  5.10875E-002
  1.40800E+000	  3.96412E-002
  1.53600E+000	  3.06705E-002
  1.66400E+000	  2.31797E-002
  1.79200E+000	  1.84400E-002
  1.92000E+000	  1.34784E-002
  2.01600E+000	  1.00829E-002
  2.27200E+000	  5.13896E-003
  2.52800E+000	  1.68495E-003
  2.78400E+000	 -1.23214E-003
  3.04000E+000	 -3.11462E-003
  3.29600E+000	 -2.36950E-003
  3.55200E+000	 -2.35905E-003
  3.80800E+000	 -2.09232E-003
  4.06400E+000	 -2.04854E-003
  4.57600E+000	 -1.27217E-003
  5.08800E+000	 -1.92842E-004
  5.60000E+000	  1.21893E-003
  6.11200E+000	  4.35606E-004
  6.62400E+000	 -3.50465E-003
  7.13600E+000	 -2.13095E-003
  7.64800E+000	 -2.37568E-003
  8.16000E+000	 -1.97680E-003
  9.18400E+000	  6.96579E-004
  1.02080E+001	 -9.34519E-004
  1.12320E+001	 -2.40897E-004
  1.22560E+001	 -1.79084E-003
  1.32800E+001	 -2.63377E-004
  1.43040E+001	  2.21421E-003
  1.53280E+001	 -8.04363E-004
  1.63520E+001	 -3.05537E-003
  1.84000E+001	  1.76683E-003
  2.04480E+001	  2.84350E-003
  2.24960E+001	  2.45200E-003
  2.45440E+001	  1.33466E-003
  2.65920E+001	  1.72122E-003
  2.86400E+001	  1.47812E-003
  3.06880E+001	 -1.97528E-004
  3.27360E+001	 -6.92187E-004
  3.68320E+001	  4.18680E-004
  4.09280E+001	  2.20929E-003
  4.50240E+001	  3.22655E-004
  4.91200E+001	 -8.70064E-004
  5.32160E+001	 -1.33787E-004
  5.73120E+001	 -1.08933E-003
  6.14080E+001	 -1.19911E-003
  6.55040E+001	 -2.17519E-004
  7.36960E+001	  1.46855E-003
  8.18880E+001	 -1.97179E-003
  9.00800E+001	 -1.53545E-003
  9.82720E+001	  1.19851E-003
  1.06464E+002	 -1.27908E-003
  1.14656E+002	  1.32684E-003
  1.22848E+002	  6.06000E-004
  1.31040E+002	  2.33398E-003
  1.47424E+002	 -1.38555E-003
  1.63808E+002	 -2.07051E-004
  1.80192E+002	  9.64687E-004
  1.96576E+002	 -1.51588E-004
  2.12960E+002	  9.08566E-005
  2.29344E+002	  1.12867E-003
  2.45728E+002	  4.63477E-004
  2.62112E+002	 -7.75827E-004
  2.94880E+002	 -1.70390E-003
  3.27648E+002	 -1.33360E-003
  3.60416E+002	  2.08313E-004
  3.93184E+002	  9.81243E-004
  4.25952E+002	  4.92881E-004
  4.58720E+002	  1.31697E-003
  4.91488E+002	 -1.02815E-003
  5.24256E+002	 -1.32784E-004
  5.89792E+002	  7.35213E-004
  6.55328E+002	  1.47164E-004
  7.20864E+002	  1.22146E-006
  7.86400E+002	 -5.88353E-004
  8.51936E+002	  2.25422E-004
  9.17472E+002	  5.26702E-005
  9.83008E+002	  6.62990E-004
  1.04854E+003	  3.16365E-005
  1.17962E+003	  3.38619E-005
  1.31069E+003	 -3.05735E-004
  1.44176E+003	 -3.50693E-004
  1.57283E+003	 -2.69550E-004
  1.70390E+003	 -2.88614E-004
  1.83498E+003	 -3.34269E-004
  1.96605E+003	 -5.70274E-004
  2.09712E+003	  1.19153E-004
  2.35926E+003	 -5.21752E-004
  2.62141E+003	  1.53090E-004
  2.88355E+003	 -1.56187E-004
  3.14570E+003	  1.63029E-004
  3.40784E+003	 -1.16350E-004
  3.66998E+003	  1.86348E-004
  3.93213E+003	 -1.94972E-005
  4.19427E+003	  2.57403E-004
  4.71856E+003	  1.97825E-005
  5.24285E+003	 -2.82655E-004
  5.76714E+003	 -2.25049E-004
  6.29142E+003	 -1.15021E-004
  6.81571E+003	  1.03951E-004
  7.34000E+003	  3.87096E-004
  7.86429E+003	 -1.55416E-004

"Count Rate"
       0.11719	      58.93565
       0.23438	      58.91001
       0.35156	      58.58520
       0.46875	      61.74781
       0.58594	      58.76470
       0.70313	      60.44858
       0.82031	      51.02058
       0.93750	      55.27728
       1.05469	      52.25998
       1.17188	      57.94413
       1.28906	      56.76456
       1.40625	      50.21711
       1.52344	      56.20897
       1.64063	      57.60223
       1.75781	      65.54295
       1.87500	      59.17498
       1.99219	      51.66165
       2.10938	      65.22668
       2.22656	      64.71383
       2.34375	      57.85866
       2.46094	      55.61919
       2.57813	      63.55135
       2.69531	      67.89353
       2.81250	      66.26094
       2.92969	      60.59389
       3.04688	      59.12370
       3.16406	      53.80710
       3.28125	      53.49084
       3.39844	      58.00397
       3.51563	      59.34594
       3.63281	      60.46567
       3.75000	      50.01197
       3.86719	      63.05559
       3.98438	      57.85011
       4.10156	      64.44885
       4.21875	      60.77338
       4.33594	      59.24337
       4.45313	      57.13211
       4.57031	      63.61119
       4.68750	      59.96136
       4.80469	      59.08096
       4.92188	      56.85004
       5.03906	      57.13211
       5.15625	      63.44878
       5.27344	      67.11570
       5.39063	      61.93586
       5.50781	      64.23516
       5.62500	      59.84170
       5.74219	      56.65345
       5.85938	      61.61105
       5.97656	      59.35448
       6.09375	      61.10674
       6.21094	      60.95288
       6.32813	      61.96150
       6.44531	      52.87541
       6.56250	      56.85004
       6.67969	      63.98728
       6.79688	      65.33780
       6.91406	      66.24384
       7.03125	      56.65345
       7.14844	      50.48208
       7.26563	      55.90126
       7.38281	      58.69632
       7.50000	      60.59389
       7.61719	      57.74754
       7.73438	      48.09731
       7.85156	      65.16685
       7.96875	      56.66199
       8.08594	      58.73051
       8.20313	      52.79848
       8.32031	      69.62015
       8.43750	      54.14900
       8.55469	      61.95295
       8.67188	      58.43989
       8.78906	      62.67950
       8.90625	      54.67895
       9.02344	      65.73099
       9.14063	      61.02981
       9.25781	      56.20042
       9.37500	      56.94407
       9.49219	      60.06393
       9.60938	      62.59402
       9.72656	      59.93572
       9.84375	      53.86693
       9.96094	      64.79930
      10.07813	      58.00397
      10.19531	      58.20911
      10.31250	      63.96164
      10.42969	      57.69625
      10.54688	      56.55087
      10.66406	      63.17526
      10.78125	      51.81551
      10.89844	      58.31168
      11.01563	      55.60209
      11.13281	      56.93552
      11.25000	      56.29445
      11.36719	      61.12384
      11.48438	      57.80737
      11.60156	      51.74713
      11.71875	      50.16582
      11.83594	      60.28617
      11.95313	      56.85004
      12.07031	      55.10633
      12.18750	      66.54301
      12.30469	      52.84122
      12.42188	      56.20897
      12.53906	      49.66151
      12.65625	      55.99528
      12.77344	      64.64545
      12.89063	      58.13218
      13.00781	      52.70446
      13.12500	      57.64497
      13.24219	      62.97866
      13.35938	      53.16603
      13.47656	      56.44830
      13.59375	      65.76518
      13.71094	      57.05518
      13.82813	      57.62787
      13.94531	      58.22620
      14.06250	      64.60271
      14.17969	      64.61980
      14.29688	      54.99521
      14.41406	      67.99610
      14.53125	      53.64469
      14.64844	      61.91876
      14.76563	      57.67916
      14.88281	      59.90153
      15.00000	      65.99596
      15.11719	      64.10695
      15.23438	      57.20049
      15.35156	      58.43989
      15.46875	      56.50814
      15.58594	      61.07255
      15.70313	      63.38040
      15.82031	      58.57665
      15.93750	      47.35366
      16.05469	      59.14934
      16.17188	      63.33766
      16.28906	      66.44044
      16.40625	      52.45658
      16.52344	      61.86748
      16.64063	      63.68811
      16.75781	      57.27742
      16.87500	      58.38861
      16.99219	      65.57713
      17.10938	      63.73940
      17.22656	      68.18415
      17.34375	      56.37992
      17.46094	      66.81654
      17.57813	      59.11515
      17.69531	      61.23495
      17.81250	      61.95295
      17.92969	      53.49939
      18.04688	      53.94386
      18.16406	      53.85838
      18.28125	      61.20076
      18.39844	      59.06387
      18.51563	      51.90099
      18.63281	      56.15768
      18.75000	      62.22647
      18.86719	      54.17464
      18.98438	      51.30265
      19.10156	      60.30327
      19.21875	      56.69618
      19.33594	      64.05566
      19.45313	      57.53385
      19.57031	      60.79903
      19.68750	      60.02120
      19.80469	      58.55956
      19.92188	      53.73017
      20.03906	      66.20111
      20.15625	      66.08144
      20.27344	      59.15789
      20.39063	      61.18367
      20.50781	      60.51696
      20.62500	      55.49097
      20.74219	      64.28645
      20.85938	      59.19208
      20.97656	      63.50861
      21.09375	      56.80730
      21.21094	      62.35469
      21.32813	      57.21759
      21.44531	      65.38908
      21.56250	      63.25219
      21.67969	      60.17505
      21.79688	      59.18353
      21.91406	      64.35483
      22.03125	      57.61077
      22.14844	      64.15823
      22.26563	      56.91842
      22.38281	      49.50766
      22.50000	      59.20063
      22.61719	      58.87582
      22.73438	      63.25219
      22.85156	      53.76436
      22.96875	      57.16630
      23.08594	      56.96116
      23.20313	      61.71362
      23.32031	      60.94434
      23.43750	      59.88444
      23.55469	      58.14073
      23.67188	      55.26019
      23.78906	      57.13211
      23.90625	      54.49945
      24.02344	      54.45671
      24.14063	      61.11529
      24.25781	      64.11549
      24.37500	      62.17519
      24.49219	      67.37212
      24.60938	      62.80771
      24.72656	      58.63649
      24.84375	      60.09813
      24.96094	      52.09758
      25.07813	      55.50807
      25.19531	      66.65413
      25.31250	      58.73906
      25.42969	      56.93552
      25.54688	      59.83315
      25.66406	      61.95295
      25.78125	      56.45685
      25.89844	      62.64531
      26.01563	      57.43982
      26.13281	      61.31189
      26.25000	      49.32816
      26.36719	      51.97791
      26.48438	      72.63744
      26.60156	      51.60182
      26.71875	      62.47436
      26.83594	      61.04691
      26.95313	      57.67916
      27.07031	      59.07241
      27.18750	      56.42266
      27.30469	      55.41404
      27.42188	      51.84115
      27.53906	      57.16630
      27.65625	      60.55115
      27.77344	      55.86707
      27.89063	      71.20145
      28.00781	      55.98673
      28.12500	      57.36290
      28.24219	      53.20022
      28.35938	      60.78193
      28.47656	      61.31189
      28.59375	      63.19236
      28.71094	      56.87568
      28.82813	      65.14975
      28.94531	      61.18367
      29.06250	      57.92704
      29.17969	      57.02099
      29.29688	      56.46540
      29.41406	      54.51655
      29.53125	      55.27728
      29.64844	      64.80785
      29.76563	      61.59396
      29.88281	      63.26928
